TITLE	1kx8_002
DATA TYPE	
ORIGIN	JASCO
OWNER	
DATE	17/03/27
TIME	16:29:38
SPECTROMETER/DATA SYSTEM	
LOCALE	2055
RESOLUTION	
DELTAX	-0.2
XUNITS	NANOMETERS
YUNITS	CD [mdeg]
Y2UNITS	HT [V]
FIRSTX	  250.0000
LASTX	  190.0000
NPOINTS	     301
FIRSTY	    -0.08092
MAXY	     1.85094
MINY	   -13.57390
XYDATA
250.0000	-0.0809185	302.026
249.8000	-0.110903	302.301
249.6000	-0.113386	302.581
249.4000	-0.156126	302.858
249.2000	-0.171597	303.137
249.0000	-0.200852	303.421
248.8000	-0.223753	303.701
248.6000	-0.218954	303.984
248.4000	-0.231669	304.266
248.2000	-0.263152	304.55
248.0000	-0.269839	304.835
247.8000	-0.261832	305.119
247.6000	-0.289936	305.406
247.4000	-0.325479	305.69
247.2000	-0.347657	305.975
247.0000	-0.339381	306.26
246.8000	-0.37364	306.543
246.6000	-0.390005	306.831
246.4000	-0.407729	307.119
246.2000	-0.423932	307.403
246.0000	-0.462542	307.69
245.8000	-0.481493	307.977
245.6000	-0.521192	308.269
245.4000	-0.555441	308.564
245.2000	-0.550962	308.863
245.0000	-0.56513	309.161
244.8000	-0.582021	309.46
244.6000	-0.617031	309.764
244.4000	-0.629877	310.062
244.2000	-0.652551	310.368
244.0000	-0.711758	310.678
243.8000	-0.739334	310.99
243.6000	-0.754112	311.304
243.4000	-0.76864	311.623
243.2000	-0.797606	311.941
243.0000	-0.839542	312.266
242.8000	-0.876118	312.592
242.6000	-0.929584	312.922
242.4000	-0.9747	313.254
242.2000	-0.995789	313.584
242.0000	-1.08227	313.92
241.8000	-1.11823	314.263
241.6000	-1.18431	314.611
241.4000	-1.24092	314.96
241.2000	-1.31496	315.318
241.0000	-1.38381	315.677
240.8000	-1.45322	316.042
240.6000	-1.5016	316.409
240.4000	-1.56553	316.778
240.2000	-1.62256	317.151
240.0000	-1.68334	317.535
239.8000	-1.76046	317.921
239.6000	-1.80685	318.311
239.4000	-1.85529	318.706
239.2000	-1.89574	319.107
239.0000	-1.92572	319.513
238.8000	-1.9716	319.923
238.6000	-2.03788	320.339
238.4000	-2.12568	320.762
238.2000	-2.18078	321.188
238.0000	-2.23791	321.621
237.8000	-2.31959	322.065
237.6000	-2.43458	322.504
237.4000	-2.53411	322.953
237.2000	-2.66915	323.406
237.0000	-2.77239	323.864
236.8000	-2.84209	324.332
236.6000	-2.9221	324.806
236.4000	-3.02027	325.286
236.2000	-3.05913	325.773
236.0000	-3.11521	326.26
235.8000	-3.21746	326.759
235.6000	-3.30317	327.261
235.4000	-3.32363	327.772
235.2000	-3.37527	328.289
235.0000	-3.46449	328.806
234.8000	-3.5329	329.335
234.6000	-3.62924	329.864
234.4000	-3.695	330.402
234.2000	-3.82109	330.945
234.0000	-3.95486	331.499
233.8000	-4.09116	332.061
233.6000	-4.20546	332.627
233.4000	-4.32287	333.196
233.2000	-4.47697	333.771
233.0000	-4.58627	334.35
232.8000	-4.76466	334.929
232.6000	-4.87757	335.517
232.4000	-5.0228	336.112
232.2000	-5.17247	336.718
232.0000	-5.24042	337.325
231.8000	-5.38099	337.94
231.6000	-5.517	338.56
231.4000	-5.67367	339.186
231.2000	-5.77901	339.817
231.0000	-5.90325	340.453
230.8000	-6.00404	341.093
230.6000	-6.05639	341.742
230.4000	-6.1467	342.39
230.2000	-6.30442	343.043
230.0000	-6.43858	343.698
229.8000	-6.55533	344.353
229.6000	-6.73677	345.008
229.4000	-6.87979	345.666
229.2000	-6.99234	346.325
229.0000	-7.11703	346.995
228.8000	-7.22199	347.66
228.6000	-7.36848	348.329
228.4000	-7.47797	349.002
228.2000	-7.56974	349.673
228.0000	-7.65856	350.348
227.8000	-7.82179	351.025
227.6000	-7.90372	351.702
227.4000	-7.98673	352.379
227.2000	-8.09431	353.056
227.0000	-8.21963	353.732
226.8000	-8.26598	354.415
226.6000	-8.27295	355.097
226.4000	-8.34859	355.782
226.2000	-8.42245	356.473
226.0000	-8.47342	357.16
225.8000	-8.56442	357.853
225.6000	-8.61365	358.54
225.4000	-8.69535	359.23
225.2000	-8.78513	359.917
225.0000	-8.82044	360.607
224.8000	-8.84071	361.297
224.6000	-8.87218	361.986
224.4000	-8.91067	362.678
224.2000	-8.93372	363.377
224.0000	-8.97029	364.075
223.8000	-8.99926	364.778
223.6000	-9.00318	365.479
223.4000	-9.04204	366.183
223.2000	-9.0873	366.893
223.0000	-9.11139	367.605
222.8000	-9.10175	368.319
222.6000	-9.10973	369.041
222.4000	-9.10534	369.76
222.2000	-9.10583	370.484
222.0000	-9.13289	371.206
221.8000	-9.16779	371.933
221.6000	-9.2522	372.664
221.4000	-9.30593	373.398
221.2000	-9.31015	374.136
221.0000	-9.37717	374.874
220.8000	-9.40122	375.622
220.6000	-9.41624	376.369
220.4000	-9.36198	377.118
220.2000	-9.39731	377.872
220.0000	-9.41061	378.628
219.8000	-9.43521	379.391
219.6000	-9.4158	380.155
219.4000	-9.34763	380.93
219.2000	-9.33869	381.701
219.0000	-9.27216	382.483
218.8000	-9.27005	383.264
218.6000	-9.22343	384.053
218.4000	-9.19824	384.848
218.2000	-9.23074	385.646
218.0000	-9.27063	386.451
217.8000	-9.32302	387.261
217.6000	-9.35344	388.073
217.4000	-9.39233	388.893
217.2000	-9.46964	389.719
217.0000	-9.47509	390.551
216.8000	-9.40347	391.396
216.6000	-9.32718	392.246
216.4000	-9.32127	393.108
216.2000	-9.29412	393.979
216.0000	-9.28894	394.857
215.8000	-9.31336	395.748
215.6000	-9.39733	396.646
215.4000	-9.50935	397.555
215.2000	-9.52537	398.482
215.0000	-9.56254	399.417
214.8000	-9.59318	400.371
214.6000	-9.59611	401.339
214.4000	-9.58045	402.319
214.2000	-9.57917	403.315
214.0000	-9.59797	404.326
213.8000	-9.68531	405.356
213.6000	-9.86038	406.405
213.4000	-9.96741	407.47
213.2000	-10.0407	408.556
213.0000	-10.0776	409.661
212.8000	-10.1809	410.785
212.6000	-10.2989	411.94
212.4000	-10.4499	413.112
212.2000	-10.5233	414.31
212.0000	-10.6244	415.534
211.8000	-10.7122	416.785
211.6000	-10.8163	418.059
211.4000	-10.8854	419.367
211.2000	-10.9207	420.703
211.0000	-10.8797	422.074
210.8000	-11.0323	423.475
210.6000	-11.1361	424.911
210.4000	-11.3474	426.383
210.2000	-11.5889	427.889
210.0000	-11.8235	429.439
209.8000	-11.9968	431.025
209.6000	-12.1571	432.656
209.4000	-12.3225	434.327
209.2000	-12.4294	436.044
209.0000	-12.5946	437.812
208.8000	-12.6231	439.635
208.6000	-12.7288	441.517
208.4000	-12.85	443.451
208.2000	-12.8907	445.444
208.0000	-12.9823	447.506
207.8000	-13.1685	449.632
207.6000	-13.3419	451.825
207.4000	-13.5409	454.102
207.2000	-13.5739	456.458
207.0000	-13.4195	458.905
206.8000	-13.3883	461.44
206.6000	-13.4415	464.08
206.4000	-13.4703	466.82
206.2000	-13.4154	469.676
206.0000	-13.3658	472.641
205.8000	-13.1032	475.737
205.6000	-13.0166	478.961
205.4000	-12.7611	482.327
205.2000	-12.6268	485.849
205.0000	-12.5684	489.529
204.8000	-12.2085	493.382
204.6000	-11.8694	497.417
204.4000	-11.6582	501.633
204.2000	-11.4424	506.043
204.0000	-11.3283	510.646
203.8000	-10.9302	515.453
203.6000	-10.4556	520.465
203.4000	-9.99026	525.677
203.2000	-9.87004	531.086
203.0000	-9.32092	536.685
202.8000	-9.10668	542.461
202.6000	-8.37557	548.401
202.4000	-7.86424	554.467
202.2000	-7.44426	560.638
202.0000	-7.60108	566.881
201.8000	-6.55461	573.179
201.6000	-5.94113	579.492
201.4000	-5.26832	585.793
201.2000	-5.12533	592.064
201.0000	-5.05839	598.281
200.8000	-5.12194	604.42
200.6000	-4.51193	610.467
200.4000	-4.54778	616.399
200.2000	-4.07381	622.215
200.0000	-3.64407	627.901
199.8000	-3.29991	633.446
199.6000	-3.33493	638.839
199.4000	-2.92958	644.078
199.2000	-3.05262	649.149
199.0000	-3.44261	654.038
198.8000	-3.23138	658.739
198.6000	-2.8467	663.232
198.4000	-2.80594	667.518
198.2000	-2.59535	671.578
198.0000	-2.64026	675.405
197.8000	-2.68115	678.99
197.6000	-2.11469	682.333
197.4000	-1.73486	685.424
197.2000	-2.2657	688.251
197.0000	-2.57466	690.809
196.8000	-2.9455	693.101
196.6000	-2.35454	695.117
196.4000	-2.19492	696.864
196.2000	-2.13522	698.354
196.0000	-2.69441	699.599
195.8000	-2.96401	700.628
195.6000	-3.64941	701.454
195.4000	-3.4918	702.114
195.2000	-3.58512	702.621
195.0000	-3.71226	703.009
194.8000	-3.89127	703.296
194.6000	-3.80596	703.505
194.4000	-3.26625	703.658
194.2000	-2.19664	703.766
194.0000	-2.32065	703.839
193.8000	-2.06774	703.894
193.6000	-1.35636	703.938
193.4000	-1.52606	703.963
193.2000	-1.35186	703.984
193.0000	-1.21113	704.001
192.8000	-1.21665	704.009
192.6000	-0.747462	704.018
192.4000	0.0657906	704.029
192.2000	0.301908	704.036
192.0000	0.331597	704.042
191.8000	0.0264214	704.049
191.6000	0.302547	704.058
191.4000	0.464933	704.066
191.2000	0.776814	704.073
191.0000	0.682146	704.075
190.8000	0.739657	704.072
190.6000	1.2694	704.066
190.4000	1.50357	704.056
190.2000	1.85094	704.046
190.0000	1.85041	704.035

##### Extended Information
[Comments]
Sample name	1kx8_002
Comment
User
Division
Company	EPFL

[Detailed Information]
Creation date	27.03.2017 16:29

Data array type	Linear data array * 2
Horizontal axis	Wavelength [nm]
Vertical axis(1)	CD [mdeg]
Vertical axis(2)	HT [V]
Start	250 nm
End	190 nm
Data interval	0.2 nm
Data points	301     

[Measurement Information]
Instrument Name	CD-Spectrometer
Model Name	J-815
Serial No.	A007961168

Accessory	PFD-425S
Accessory S/N	A001061180
  Temperature	24.89 C
  Control Sonsor	Holder
  Monitor Sensor	Holder
  Cell Length	10 mm

Photometric Mode	CD, HT
Measure Range	250 - 190 nm
Data pitch	0.2 nm
Sensitivity	Standard
D.I.T.	8 sec
Bandwidth	1.00 nm
Start Mode	Immediately
Scanning Speed	50 nm/min
Baseline Correction	None
Shutter Control	Auto
PMT Voltage	Auto
End Temperature.	25 C
Start Temperature.	95 C
Temperature. Interval	10 C
Ramp Rate	5 C/min

